!Ant UT(days)    phs        X-slope (deg/deg) Y-slope   from MultiView fits
  3   0.10333     49.         15.684         15.849
  3   0.10515     59.         12.152         12.136
  3   0.10700     52.         14.579          6.754
  3   0.10884     53.         15.856          6.716
  3   0.11069     53.         15.856          6.716
  3   0.11253     54.         15.945          6.431
  3   0.11438     52.         16.832          7.363
  3   0.11808     47.          0.035         12.092
  3   0.12362     54.         -2.774          9.610
  3   0.12731     57.          2.771          4.305
  3   0.12915     53.          4.332          0.844
  3   0.13284     56.         -2.222         -1.292
  3   0.13470     55.         -0.349         -5.679
  3   0.13655     54.         -1.917         -5.745
  3   0.13839     51.         -0.564         -8.744
  3   0.14024     47.         -5.499         -8.554
  3   0.14577     52.         -7.184        -12.629
  3   0.14762     52.         -7.244        -12.497
  3   0.14948     57.         -3.778        -13.143
  3   0.15132     50.         -1.328        -10.567
  3   0.15317     51.         -1.244        -10.811
  3   0.15501     59.         -1.358        -13.424
  3   0.15686     57.         -0.439        -15.462
  3   0.15870     61.          1.944        -16.057
  3   0.16055     61.          1.944        -16.057
  3   0.16239     61.          2.342        -17.001
  3   0.16794     59.          0.551        -18.253
  3   0.16979     59.          0.551        -18.253
  3   0.17163     62.          0.749        -18.881
  3   0.17532     49.          5.245        -13.264
  3   0.17717     50.          6.239        -13.293
  3   0.17902     50.          6.239        -13.293
  3   0.18087     55.          6.572        -14.355
  3   0.22738     78.          4.734         -3.053
  3   0.22920     82.          3.374         -4.483
  3   0.23289     83.          1.068         -2.318
  3   0.23473     83.          1.068         -2.318
  3   0.23658     79.          0.765         -1.355
  3   0.23843     78.          1.126         -0.975
  3   0.24027     78.          1.019         -0.736
  3   0.24213     77.         -0.181         -0.701
  3   0.24582     75.         -0.319         -0.262
  3   0.24766     76.         -0.757         -0.722
  3   0.24951     76.         -0.661         -0.926
  3   0.25136     73.         -2.632         -0.225
  3   0.25320     72.         -2.365         -0.817
  3   0.25505     77.         -1.932         -1.931
  3   0.25690     79.         -2.625         -2.659
  3   0.26244     77.         -3.669         -2.099
  3   0.26428     74.         -6.131         -1.897
  3   0.26613     76.         -6.841         -2.643
  3   0.26798     77.         -7.204         -1.812
  3   0.26982     76.         -8.647         -1.685
  3   0.27168     75.         -8.251         -2.563
  3   0.27352     74.         -9.471         -2.598
  3   0.27721     74.         -8.561         -3.934
  3   0.27906     78.         -7.433         -4.799
  3   0.28091     77.         -7.153         -5.420
  3   0.28460     77.         -7.773         -5.490
  3   0.28644     78.         -7.429         -6.396
  3   0.29014     77.         -9.895         -7.025
  3   0.29199     78.         -8.067         -7.078
  3   0.29753     74.         -8.372         -6.303
  3   0.29937     75.         -8.676         -5.629
  3   0.30122     73.        -11.522         -5.546
  3   0.30306     73.        -11.522         -5.546
  3   0.30492     74.        -11.468         -5.721
  3   0.30676     71.        -10.467         -4.669
  3   0.31046     69.         -7.537         -7.481
  3   0.34433     70.         -5.689         -4.122
  3   0.34614     75.         -7.180         -5.690
  3   0.34798     75.         -7.180         -5.691
  3   0.35353     75.         -7.259         -5.785
  3   0.35538     73.         -6.650         -5.146
  3   0.35722     70.         -5.525         -7.641
  3   0.35907     71.         -4.918         -7.659
  3   0.36091     71.         -4.918         -7.659
  3   0.36276     70.         -4.965         -7.510
  3   0.36462     70.         -5.078         -7.628
  3   0.36831     70.         -4.532         -8.914
  3   0.37015     69.         -4.092         -9.891
  3   0.37200     68.         -3.901         -9.687
  3   0.37384     67.         -3.686         -9.462
  3   0.37569     69.         -3.763         -9.369
  3   0.37753     70.         -4.069         -9.594
  3   0.37938     68.         -3.604        -10.624
  3   0.38308     65.         -3.144         -9.827
  3   0.38677     62.         -4.016         -6.703
  3   0.39046     61.         -3.380         -7.591
  3   0.39231     61.         -3.288         -7.494
  3   0.39416     59.         -3.184         -7.623
  3   0.39786     61.         -3.993         -6.339
  3   0.39970     62.         -4.289         -6.519
  3   0.40155     62.         -4.237         -6.465
  3   0.40339     61.         -4.311         -6.265
  3   0.40524     61.         -3.332         -5.966
  3   0.40708     62.         -3.790         -4.951
  3   0.40893     62.         -4.176         -4.939
  3   0.41078     62.         -4.176         -4.939
  3   0.41262     62.         -4.189         -4.899
  3   0.41448     61.         -4.064         -4.767
  3   0.41817     62.         -4.145         -4.520
  3   0.42186     64.         -3.983         -5.036
  3   0.42371     64.         -4.036         -5.092
  3   0.42555     61.         -2.800         -7.832
  3   0.42740     62.         -1.048         -7.884
